# T(K)          a da/dT(-6/K)          b db/dT(-6/K)          c dc/dT(-6/K)
   0.0   2.495827    0.049574   2.495827    0.049574   2.495827    0.049574
  10.0   2.495828    0.036323   2.495828    0.036323   2.495828    0.036323
  20.0   2.495831    0.275985   2.495831    0.275985   2.495831    0.275985
  30.0   2.495844    0.880685   2.495844    0.880685   2.495844    0.880685
  40.0   2.495878    1.896707   2.495878    1.896707   2.495878    1.896707
  50.0   2.495941    3.135361   2.495941    3.135361   2.495941    3.135361
  60.0   2.496035    4.412083   2.496035    4.412083   2.496035    4.412083
  70.0   2.496161    5.616161   2.496161    5.616161   2.496161    5.616161
  80.0   2.496315    6.698615   2.496315    6.698615   2.496315    6.698615
  90.0   2.496494    7.647342   2.496494    7.647342   2.496494    7.647342
 100.0   2.496695    8.468450   2.496695    8.468450   2.496695    8.468450
 110.0   2.496916    9.175539   2.496916    9.175539   2.496916    9.175539
 120.0   2.497153    9.784194   2.497153    9.784194   2.497153    9.784194
 130.0   2.497404   10.309410   2.497404   10.309410   2.497404   10.309410
 140.0   2.497667   10.764557   2.497667   10.764557   2.497667   10.764557
 150.0   2.497941   11.161094   2.497941   11.161094   2.497941   11.161094
 160.0   2.498224   11.508642   2.498224   11.508642   2.498224   11.508642
 170.0   2.498516   11.815187   2.498516   11.815187   2.498516   11.815187
 180.0   2.498814   12.087324   2.498814   12.087324   2.498814   12.087324
 190.0   2.499120   12.330488   2.499120   12.330488   2.499120   12.330488
 200.0   2.499431   12.549159   2.499431   12.549159   2.499431   12.549159
 210.0   2.499747   12.747039   2.499747   12.747039   2.499747   12.747039
 220.0   2.500068   12.927197   2.500068   12.927197   2.500068   12.927197
 230.0   2.500393   13.092183   2.500393   13.092183   2.500393   13.092183
 240.0   2.500722   13.244125   2.500722   13.244125   2.500722   13.244125
 250.0   2.501055   13.384809   2.501055   13.384809   2.501055   13.384809
 260.0   2.501392   13.515736   2.501392   13.515736   2.501392   13.515736
 270.0   2.501731   13.638178   2.501731   13.638178   2.501731   13.638178
 280.0   2.502074   13.753213   2.502074   13.753213   2.502074   13.753213
 290.0   2.502420   13.861762   2.502420   13.861762   2.502420   13.861762
 300.0   2.502768   13.964613   2.502768   13.964613   2.502768   13.964613
 310.0   2.503119   14.062444   2.503119   14.062444   2.503119   14.062444
 320.0   2.503472   14.155841   2.503472   14.155841   2.503472   14.155841
 330.0   2.503827   14.245310   2.503827   14.245310   2.503827   14.245310
 340.0   2.504185   14.331295   2.504185   14.331295   2.504185   14.331295
 350.0   2.504545   14.414182   2.504545   14.414182   2.504545   14.414182
 360.0   2.504907   14.494309   2.504907   14.494309   2.504907   14.494309
 370.0   2.505271   14.571974   2.505271   14.571974   2.505271   14.571974
 380.0   2.505637   14.647440   2.505637   14.647440   2.505637   14.647440
 390.0   2.506005   14.720940   2.506005   14.720940   2.506005   14.720940
 400.0   2.506375   14.792682   2.506375   14.792682   2.506375   14.792682
 410.0   2.506747   14.862850   2.506747   14.862850   2.506747   14.862850
 420.0   2.507120   14.931609   2.507120   14.931609   2.507120   14.931609
 430.0   2.507495   14.999108   2.507495   14.999108   2.507495   14.999108
 440.0   2.507872   15.065480   2.507872   15.065480   2.507872   15.065480
 450.0   2.508251   15.130844   2.508251   15.130844   2.508251   15.130844
 460.0   2.508631   15.195311   2.508631   15.195311   2.508631   15.195311
 470.0   2.509013   15.258978   2.509013   15.258978   2.509013   15.258978
 480.0   2.509397   15.321935   2.509397   15.321935   2.509397   15.321935
 490.0   2.509782   15.384265   2.509782   15.384265   2.509782   15.384265
 500.0   2.510169   15.446042   2.510169   15.446042   2.510169   15.446042
 510.0   2.510558   15.507335   2.510558   15.507335   2.510558   15.507335
 520.0   2.510948   15.568208   2.510948   15.568208   2.510948   15.568208
 530.0   2.511340   15.628718   2.511340   15.628718   2.511340   15.628718
 540.0   2.511733   15.688921   2.511733   15.688921   2.511733   15.688921
 550.0   2.512128   15.748865   2.512128   15.748865   2.512128   15.748865
 560.0   2.512524   15.808598   2.512524   15.808598   2.512524   15.808598
 570.0   2.512922   15.868163   2.512922   15.868163   2.512922   15.868163
 580.0   2.513322   15.927601   2.513322   15.927601   2.513322   15.927601
 590.0   2.513723   15.986950   2.513723   15.986950   2.513723   15.986950
 600.0   2.514125   16.046247   2.514125   16.046247   2.514125   16.046247
 610.0   2.514530   16.105525   2.514530   16.105525   2.514530   16.105525
 620.0   2.514935   16.164817   2.514935   16.164817   2.514935   16.164817
 630.0   2.515343   16.224154   2.515343   16.224154   2.515343   16.224154
 640.0   2.515752   16.283564   2.515752   16.283564   2.515752   16.283564
 650.0   2.516162   16.343076   2.516162   16.343076   2.516162   16.343076
 660.0   2.516574   16.402716   2.516574   16.402716   2.516574   16.402716
 670.0   2.516988   16.462511   2.516988   16.462511   2.516988   16.462511
 680.0   2.517403   16.522486   2.517403   16.522486   2.517403   16.522486
 690.0   2.517819   16.582665   2.517819   16.582665   2.517819   16.582665
 700.0   2.518238   16.643072   2.518238   16.643072   2.518238   16.643072
 710.0   2.518658   16.703729   2.518658   16.703729   2.518658   16.703729
 720.0   2.519079   16.764659   2.519079   16.764659   2.519079   16.764659
 730.0   2.519502   16.825884   2.519502   16.825884   2.519502   16.825884
 740.0   2.519927   16.887426   2.519927   16.887426   2.519927   16.887426
 750.0   2.520353   16.949307   2.520353   16.949307   2.520353   16.949307
 760.0   2.520781   17.011547   2.520781   17.011547   2.520781   17.011547
 770.0   2.521211   17.074167   2.521211   17.074167   2.521211   17.074167
 780.0   2.521642   17.137188   2.521642   17.137188   2.521642   17.137188
 790.0   2.522075   17.200631   2.522075   17.200631   2.522075   17.200631
 800.0   2.522510   17.264517   2.522510   17.264517   2.522510   17.264517
 810.0   2.522946   17.328867   2.522946   17.328867   2.522946   17.328867
 820.0   2.523384   17.393700   2.523384   17.393700   2.523384   17.393700
 830.0   2.523824   17.459038   2.523824   17.459038   2.523824   17.459038
 840.0   2.524266   17.524901   2.524266   17.524901   2.524266   17.524901
 850.0   2.524709   17.591311   2.524709   17.591311   2.524709   17.591311
 860.0   2.525154   17.658289   2.525154   17.658289   2.525154   17.658289
 870.0   2.525601   17.725856   2.525601   17.725856   2.525601   17.725856
 880.0   2.526049   17.794034   2.526049   17.794034   2.526049   17.794034
 890.0   2.526500   17.862845   2.526500   17.862845   2.526500   17.862845
 900.0   2.526952   17.932311   2.526952   17.932311   2.526952   17.932311
 910.0   2.527406   18.002454   2.527406   18.002454   2.527406   18.002454
 920.0   2.527862   18.073297   2.527862   18.073297   2.527862   18.073297
 930.0   2.528320   18.144877   2.528320   18.144877   2.528320   18.144877
 940.0   2.528779   18.217194   2.528779   18.217194   2.528779   18.217194
 950.0   2.529241   18.290120   2.529241   18.290120   2.529241   18.290120
 960.0   2.529705   18.364686   2.529705   18.364686   2.529705   18.364686
 970.0   2.530170   18.429687   2.530170   18.429687   2.530170   18.429687
 980.0   2.530637   18.484724   2.530637   18.484724   2.530637   18.484724
 990.0   2.531106   18.540827   2.531106   18.540827   2.531106   18.540827
1000.0   2.531576   18.597037   2.531576   18.597037   2.531576   18.597037
1010.0   2.532047   18.653598   2.532047   18.653598   2.532047   18.653598
1020.0   2.532520   18.710488   2.532520   18.710488   2.532520   18.710488
1030.0   2.532995   18.767706   2.532995   18.767706   2.532995   18.767706
1040.0   2.533471   18.825267   2.533471   18.825267   2.533471   18.825267
1050.0   2.533949   18.883180   2.533949   18.883180   2.533949   18.883180
1060.0   2.534428   18.941453   2.534428   18.941453   2.534428   18.941453
1070.0   2.534909   19.000095   2.534909   19.000095   2.534909   19.000095
1080.0   2.535391   19.059117   2.535391   19.059117   2.535391   19.059117
1090.0   2.535875   19.118527   2.535875   19.118527   2.535875   19.118527
1100.0   2.536361   19.178334   2.536361   19.178334   2.536361   19.178334
1110.0   2.536848   19.238548   2.536848   19.238548   2.536848   19.238548
1120.0   2.537337   19.299178   2.537337   19.299178   2.537337   19.299178
1130.0   2.537828   19.360234   2.537828   19.360234   2.537828   19.360234
1140.0   2.538320   19.421725   2.538320   19.421725   2.538320   19.421725
1150.0   2.538814   19.483661   2.538814   19.483661   2.538814   19.483661
1160.0   2.539309   19.546051   2.539309   19.546051   2.539309   19.546051
1170.0   2.539806   19.608906   2.539806   19.608906   2.539806   19.608906
1180.0   2.540305   19.672234   2.540305   19.672234   2.540305   19.672234
1190.0   2.540806   19.736047   2.540806   19.736047   2.540806   19.736047
1200.0   2.541308   19.800354   2.541308   19.800354   2.541308   19.800354
1210.0   2.541812   19.865165   2.541812   19.865165   2.541812   19.865165
1220.0   2.542318   19.930490   2.542318   19.930490   2.542318   19.930490
1230.0   2.542826   19.996340   2.542826   19.996340   2.542826   19.996340
1240.0   2.543335   20.062726   2.543335   20.062726   2.543335   20.062726
1250.0   2.543846   20.129657   2.543846   20.129657   2.543846   20.129657
1260.0   2.544359   20.197146   2.544359   20.197146   2.544359   20.197146
1270.0   2.544874   20.265202   2.544874   20.265202   2.544874   20.265202
1280.0   2.545391   20.333837   2.545391   20.333837   2.545391   20.333837
1290.0   2.545909   20.403062   2.545909   20.403062   2.545909   20.403062
1300.0   2.546429   20.472889   2.546429   20.472889   2.546429   20.472889
1310.0   2.546952   20.543330   2.546952   20.543330   2.546952   20.543330
1320.0   2.547476   20.614395   2.547476   20.614395   2.547476   20.614395
1330.0   2.548002   20.686098   2.548002   20.686098   2.548002   20.686098
1340.0   2.548530   20.758450   2.548530   20.758450   2.548530   20.758450
1350.0   2.549060   20.831464   2.549060   20.831464   2.549060   20.831464
1360.0   2.549592   20.905153   2.549592   20.905153   2.549592   20.905153
1370.0   2.550126   20.979530   2.550126   20.979530   2.550126   20.979530
1380.0   2.550662   21.054608   2.550662   21.054608   2.550662   21.054608
1390.0   2.551200   21.130400   2.551200   21.130400   2.551200   21.130400
1400.0   2.551740   21.206921   2.551740   21.206921   2.551740   21.206921
1410.0   2.552282   21.284184   2.552282   21.284184   2.552282   21.284184
1420.0   2.552827   21.362204   2.552827   21.362204   2.552827   21.362204
1430.0   2.553373   21.440995   2.553373   21.440995   2.553373   21.440995
1440.0   2.553922   21.520573   2.553922   21.520573   2.553922   21.520573
1450.0   2.554472   21.600954   2.554472   21.600954   2.554472   21.600954
1460.0   2.555025   21.682152   2.555025   21.682152   2.555025   21.682152
1470.0   2.555580   21.764184   2.555580   21.764184   2.555580   21.764184
1480.0   2.556138   21.847067   2.556138   21.847067   2.556138   21.847067
1490.0   2.556697   21.930817   2.556697   21.930817   2.556697   21.930817
1500.0   2.557259   22.015453   2.557259   22.015453   2.557259   22.015453
1510.0   2.557823   22.100991   2.557823   22.100991   2.557823   22.100991
1520.0   2.558390   22.187450   2.558390   22.187450   2.558390   22.187450
1530.0   2.558959   22.274850   2.558959   22.274850   2.558959   22.274850
1540.0   2.559530   22.363209   2.559530   22.363209   2.559530   22.363209
1550.0   2.560103   22.452546   2.560103   22.452546   2.560103   22.452546
1560.0   2.560679   22.542884   2.560679   22.542884   2.560679   22.542884
1570.0   2.561258   22.634242   2.561258   22.634242   2.561258   22.634242
1580.0   2.561839   22.726641   2.561839   22.726641   2.561839   22.726641
1590.0   2.562422   22.820106   2.562422   22.820106   2.562422   22.820106
1600.0   2.563008   22.914657   2.563008   22.914657   2.563008   22.914657
1610.0   2.563597   23.010318   2.563597   23.010318   2.563597   23.010318
1620.0   2.564188   23.107114   2.564188   23.107114   2.564188   23.107114
1630.0   2.564782   23.205070   2.564782   23.205070   2.564782   23.205070
1640.0   2.565378   23.304239   2.565378   23.304239   2.565378   23.304239
1650.0   2.565978   23.404490   2.565978   23.404490   2.565978   23.404490
1660.0   2.566580   23.506360   2.566580   23.506360   2.566580   23.506360
1670.0   2.567184   23.608269   2.567184   23.608269   2.567184   23.608269
1680.0   2.567792   23.700990   2.567792   23.700990   2.567792   23.700990
1690.0   2.568401   23.788101   2.568401   23.788101   2.568401   23.788101
1700.0   2.569014   23.877911   2.569014   23.877911   2.569014   23.877911
1710.0   2.569628   23.968619   2.569628   23.968619   2.569628   23.968619
1720.0   2.570245   24.060735   2.570245   24.060735   2.570245   24.060735
1730.0   2.570865   24.154189   2.570865   24.154189   2.570865   24.154189
1740.0   2.571487   24.249022   2.571487   24.249022   2.571487   24.249022
1750.0   2.572112   24.345290   2.572112   24.345290   2.572112   24.345290
1760.0   2.572740   24.442946   2.572740   24.442946   2.572740   24.442946
1770.0   2.573370   24.542146   2.573370   24.542146   2.573370   24.542146
1780.0   2.574003   24.642932   2.574003   24.642932   2.574003   24.642932
1790.0   2.574639   24.745226   2.574639   24.745226   2.574639   24.745226
1800.0   2.575277   24.849152   2.575277   24.849152   2.575277   24.849152
1810.0   2.575918   24.954730   2.575918   24.954730   2.575918   24.954730
1820.0   2.576563   25.062012   2.576563   25.062012   2.576563   25.062012
1830.0   2.577210   25.171043   2.577210   25.171043   2.577210   25.171043
1840.0   2.577860   25.281870   2.577860   25.281870   2.577860   25.281870
1850.0   2.578513   25.394544   2.578513   25.394544   2.578513   25.394544
1860.0   2.579170   25.509117   2.579170   25.509117   2.579170   25.509117
1870.0   2.579829   25.625642   2.579829   25.625642   2.579829   25.625642
1880.0   2.580492   25.744175   2.580492   25.744175   2.580492   25.744175
1890.0   2.581158   25.864774   2.581158   25.864774   2.581158   25.864774
1900.0   2.581827   25.987499   2.581827   25.987499   2.581827   25.987499
1910.0   2.582500   26.112413   2.582500   26.112413   2.582500   26.112413
1920.0   2.583176   26.239580   2.583176   26.239580   2.583176   26.239580
1930.0   2.583856   26.369069   2.583856   26.369069   2.583856   26.369069
1940.0   2.584539   26.500949   2.584539   26.500949   2.584539   26.500949
1950.0   2.585225   26.635295   2.585225   26.635295   2.585225   26.635295
1960.0   2.585916   26.772182   2.585916   26.772182   2.585916   26.772182
1970.0   2.586610   26.911691   2.586610   26.911691   2.586610   26.911691
1980.0   2.587308   27.053903   2.587308   27.053903   2.587308   27.053903
1990.0   2.588010   27.198913   2.588010   27.198913   2.588010   27.198913
2000.0   2.588716   27.346776   2.588716   27.346776   2.588716   27.346776
