# T(K)          a da/dT(-6/K)          b db/dT(-6/K)          c dc/dT(-6/K)
   0.0   2.495813    0.047562   2.495813    0.047562   2.495813    0.047562
  10.0   2.495813    0.025018   2.495813    0.025018   2.495813    0.025018
  20.0   2.495816    0.249072   2.495816    0.249072   2.495816    0.249072
  30.0   2.495828    0.830341   2.495828    0.830341   2.495828    0.830341
  40.0   2.495861    1.816886   2.495861    1.816886   2.495861    1.816886
  50.0   2.495921    3.025624   2.495921    3.025624   2.495921    3.025624
  60.0   2.496012    4.274859   2.496012    4.274859   2.496012    4.274859
  70.0   2.496134    5.454536   2.496134    5.454536   2.496134    5.454536
  80.0   2.496283    6.515338   2.496283    6.515338   2.496283    6.515338
  90.0   2.496458    7.444565   2.496458    7.444565   2.496458    7.444565
 100.0   2.496654    8.247746   2.496654    8.247746   2.496654    8.247746
 110.0   2.496869    8.938013   2.496869    8.938013   2.496869    8.938013
 120.0   2.497099    9.530597   2.497099    9.530597   2.497099    9.530597
 130.0   2.497344   10.040232   2.497344   10.040232   2.497344   10.040232
 140.0   2.497600   10.480098   2.497600   10.480098   2.497600   10.480098
 150.0   2.497867   10.861524   2.497867   10.861524   2.497867   10.861524
 160.0   2.498143   11.194037   2.498143   11.194037   2.498143   11.194037
 170.0   2.498426   11.485564   2.498426   11.485564   2.498426   11.485564
 180.0   2.498716   11.742657   2.498716   11.742657   2.498716   11.742657
 190.0   2.499013   11.970727   2.499013   11.970727   2.499013   11.970727
 200.0   2.499314   12.174242   2.499314   12.174242   2.499314   12.174242
 210.0   2.499621   12.356899   2.499621   12.356899   2.499621   12.356899
 220.0   2.499932   12.521766   2.499932   12.521766   2.499932   12.521766
 230.0   2.500247   12.671398   2.500247   12.671398   2.500247   12.671398
 240.0   2.500565   12.807930   2.500565   12.807930   2.500565   12.807930
 250.0   2.500887   12.933155   2.500887   12.933155   2.500887   12.933155
 260.0   2.501212   13.048583   2.501212   13.048583   2.501212   13.048583
 270.0   2.501540   13.155493   2.501540   13.155493   2.501540   13.155493
 280.0   2.501870   13.254972   2.501870   13.254972   2.501870   13.254972
 290.0   2.502203   13.347947   2.502203   13.347947   2.502203   13.347947
 300.0   2.502538   13.435212   2.502538   13.435212   2.502538   13.435212
 310.0   2.502876   13.517452   2.502876   13.517452   2.502876   13.517452
 320.0   2.503215   13.595256   2.503215   13.595256   2.503215   13.595256
 330.0   2.503556   13.669135   2.503556   13.669135   2.503556   13.669135
 340.0   2.503899   13.739535   2.503899   13.739535   2.503899   13.739535
 350.0   2.504244   13.806844   2.504244   13.806844   2.504244   13.806844
 360.0   2.504591   13.871402   2.504591   13.871402   2.504591   13.871402
 370.0   2.504939   13.933507   2.504939   13.933507   2.504939   13.933507
 380.0   2.505289   13.993424   2.505289   13.993424   2.505289   13.993424
 390.0   2.505640   14.051384   2.505640   14.051384   2.505640   14.051384
 400.0   2.505993   14.107595   2.505993   14.107595   2.505993   14.107595
 410.0   2.506347   14.162239   2.506347   14.162239   2.506347   14.162239
 420.0   2.506703   14.215481   2.506703   14.215481   2.506703   14.215481
 430.0   2.507060   14.267468   2.507060   14.267468   2.507060   14.267468
 440.0   2.507418   14.318329   2.507418   14.318329   2.507418   14.318329
 450.0   2.507778   14.368184   2.507778   14.368184   2.507778   14.368184
 460.0   2.508139   14.417139   2.508139   14.417139   2.508139   14.417139
 470.0   2.508501   14.465290   2.508501   14.465290   2.508501   14.465290
 480.0   2.508865   14.512723   2.508865   14.512723   2.508865   14.512723
 490.0   2.509229   14.559518   2.509229   14.559518   2.509229   14.559518
 500.0   2.509595   14.605748   2.509595   14.605748   2.509595   14.605748
 510.0   2.509962   14.651477   2.509962   14.651477   2.509962   14.651477
 520.0   2.510331   14.696765   2.510331   14.696765   2.510331   14.696765
 530.0   2.510700   14.741668   2.510700   14.741668   2.510700   14.741668
 540.0   2.511071   14.786237   2.511071   14.786237   2.511071   14.786237
 550.0   2.511443   14.830517   2.511443   14.830517   2.511443   14.830517
 560.0   2.511816   14.874552   2.511816   14.874552   2.511816   14.874552
 570.0   2.512190   14.918382   2.512190   14.918382   2.512190   14.918382
 580.0   2.512565   14.962043   2.512565   14.962043   2.512565   14.962043
 590.0   2.512942   15.005570   2.512942   15.005570   2.512942   15.005570
 600.0   2.513320   15.048995   2.513320   15.048995   2.513320   15.048995
 610.0   2.513698   15.092347   2.513698   15.092347   2.513698   15.092347
 620.0   2.514078   15.135655   2.514078   15.135655   2.514078   15.135655
 630.0   2.514459   15.178944   2.514459   15.178944   2.514459   15.178944
 640.0   2.514842   15.222240   2.514842   15.222240   2.514842   15.222240
 650.0   2.515225   15.265566   2.515225   15.265566   2.515225   15.265566
 660.0   2.515610   15.308943   2.515610   15.308943   2.515610   15.308943
 670.0   2.515995   15.352393   2.515995   15.352393   2.515995   15.352393
 680.0   2.516382   15.395934   2.516382   15.395934   2.516382   15.395934
 690.0   2.516770   15.439587   2.516770   15.439587   2.516770   15.439587
 700.0   2.517159   15.483369   2.517159   15.483369   2.517159   15.483369
 710.0   2.517550   15.527297   2.517550   15.527297   2.517550   15.527297
 720.0   2.517941   15.571388   2.517941   15.571388   2.517941   15.571388
 730.0   2.518334   15.615657   2.518334   15.615657   2.518334   15.615657
 740.0   2.518728   15.660120   2.518728   15.660120   2.518728   15.660120
 750.0   2.519123   15.704791   2.519123   15.704791   2.519123   15.704791
 760.0   2.519519   15.749686   2.519519   15.749686   2.519519   15.749686
 770.0   2.519916   15.794817   2.519916   15.794817   2.519916   15.794817
 780.0   2.520315   15.840199   2.520315   15.840199   2.520315   15.840199
 790.0   2.520715   15.885844   2.520715   15.885844   2.520715   15.885844
 800.0   2.521116   15.931765   2.521116   15.931765   2.521116   15.931765
 810.0   2.521518   15.977976   2.521518   15.977976   2.521518   15.977976
 820.0   2.521922   16.024487   2.521922   16.024487   2.521922   16.024487
 830.0   2.522326   16.071313   2.522326   16.071313   2.522326   16.071313
 840.0   2.522732   16.118464   2.522732   16.118464   2.522732   16.118464
 850.0   2.523140   16.165952   2.523140   16.165952   2.523140   16.165952
 860.0   2.523548   16.213790   2.523548   16.213790   2.523548   16.213790
 870.0   2.523958   16.261989   2.523958   16.261989   2.523958   16.261989
 880.0   2.524369   16.310560   2.524369   16.310560   2.524369   16.310560
 890.0   2.524781   16.359515   2.524781   16.359515   2.524781   16.359515
 900.0   2.525195   16.408866   2.525195   16.408866   2.525195   16.408866
 910.0   2.525610   16.458624   2.525610   16.458624   2.525610   16.458624
 920.0   2.526026   16.508801   2.526026   16.508801   2.526026   16.508801
 930.0   2.526444   16.559408   2.526444   16.559408   2.526444   16.559408
 940.0   2.526863   16.610457   2.526863   16.610457   2.526863   16.610457
 950.0   2.527284   16.661959   2.527284   16.661959   2.527284   16.661959
 960.0   2.527705   16.713927   2.527705   16.713927   2.527705   16.713927
 970.0   2.528129   16.766371   2.528129   16.766371   2.528129   16.766371
 980.0   2.528553   16.819328   2.528553   16.819328   2.528553   16.819328
 990.0   2.528979   16.872677   2.528979   16.872677   2.528979   16.872677
1000.0   2.529407   16.926853   2.529407   16.926853   2.529407   16.926853
1010.0   2.529835   16.980548   2.529835   16.980548   2.529835   16.980548
1020.0   2.530266   17.025687   2.530266   17.025687   2.530266   17.025687
1030.0   2.530697   17.065173   2.530697   17.065173   2.530697   17.065173
1040.0   2.531129   17.106188   2.531129   17.106188   2.531129   17.106188
1050.0   2.531563   17.147166   2.531563   17.147166   2.531563   17.147166
1060.0   2.531998   17.188523   2.531998   17.188523   2.531998   17.188523
1070.0   2.532433   17.230176   2.532433   17.230176   2.532433   17.230176
1080.0   2.532870   17.272142   2.532870   17.272142   2.532870   17.272142
1090.0   2.533308   17.314427   2.533308   17.314427   2.533308   17.314427
1100.0   2.533748   17.357039   2.533748   17.357039   2.533748   17.357039
1110.0   2.534188   17.399984   2.534188   17.399984   2.534188   17.399984
1120.0   2.534629   17.443269   2.534629   17.443269   2.534629   17.443269
1130.0   2.535072   17.486900   2.535072   17.486900   2.535072   17.486900
1140.0   2.535516   17.530885   2.535516   17.530885   2.535516   17.530885
1150.0   2.535961   17.575231   2.535961   17.575231   2.535961   17.575231
1160.0   2.536407   17.619943   2.536407   17.619943   2.536407   17.619943
1170.0   2.536855   17.665030   2.536855   17.665030   2.536855   17.665030
1180.0   2.537304   17.710499   2.537304   17.710499   2.537304   17.710499
1190.0   2.537754   17.756356   2.537754   17.756356   2.537754   17.756356
1200.0   2.538205   17.802610   2.538205   17.802610   2.538205   17.802610
1210.0   2.538657   17.849267   2.538657   17.849267   2.538657   17.849267
1220.0   2.539111   17.896335   2.539111   17.896335   2.539111   17.896335
1230.0   2.539566   17.943822   2.539566   17.943822   2.539566   17.943822
1240.0   2.540023   17.991736   2.540023   17.991736   2.540023   17.991736
1250.0   2.540480   18.040084   2.540480   18.040084   2.540480   18.040084
1260.0   2.540939   18.088874   2.540939   18.088874   2.540939   18.088874
1270.0   2.541400   18.138115   2.541400   18.138115   2.541400   18.138115
1280.0   2.541861   18.187816   2.541861   18.187816   2.541861   18.187816
1290.0   2.542324   18.237983   2.542324   18.237983   2.542324   18.237983
1300.0   2.542788   18.288627   2.542788   18.288627   2.542788   18.288627
1310.0   2.543254   18.339755   2.543254   18.339755   2.543254   18.339755
1320.0   2.543721   18.391378   2.543721   18.391378   2.543721   18.391378
1330.0   2.544190   18.443503   2.544190   18.443503   2.544190   18.443503
1340.0   2.544660   18.496140   2.544660   18.496140   2.544660   18.496140
1350.0   2.545131   18.549299   2.545131   18.549299   2.545131   18.549299
1360.0   2.545604   18.602990   2.545604   18.602990   2.545604   18.602990
1370.0   2.546078   18.657222   2.546078   18.657222   2.546078   18.657222
1380.0   2.546554   18.712005   2.546554   18.712005   2.546554   18.712005
1390.0   2.547031   18.767350   2.547031   18.767350   2.547031   18.767350
1400.0   2.547510   18.823267   2.547510   18.823267   2.547510   18.823267
1410.0   2.547990   18.879768   2.547990   18.879768   2.547990   18.879768
1420.0   2.548472   18.936862   2.548472   18.936862   2.548472   18.936862
1430.0   2.548956   18.994562   2.548956   18.994562   2.548956   18.994562
1440.0   2.549441   19.052879   2.549441   19.052879   2.549441   19.052879
1450.0   2.549927   19.111825   2.549927   19.111825   2.549927   19.111825
1460.0   2.550415   19.171411   2.550415   19.171411   2.550415   19.171411
1470.0   2.550905   19.231651   2.550905   19.231651   2.550905   19.231651
1480.0   2.551396   19.292557   2.551396   19.292557   2.551396   19.292557
1490.0   2.551889   19.354142   2.551889   19.354142   2.551889   19.354142
1500.0   2.552384   19.416419   2.552384   19.416419   2.552384   19.416419
1510.0   2.552881   19.479403   2.552881   19.479403   2.552881   19.479403
1520.0   2.553379   19.543106   2.553379   19.543106   2.553379   19.543106
1530.0   2.553879   19.607544   2.553879   19.607544   2.553879   19.607544
1540.0   2.554380   19.672731   2.554380   19.672731   2.554380   19.672731
1550.0   2.554884   19.738682   2.554884   19.738682   2.554884   19.738682
1560.0   2.555389   19.805414   2.555389   19.805414   2.555389   19.805414
1570.0   2.555896   19.872941   2.555896   19.872941   2.555896   19.872941
1580.0   2.556405   19.941280   2.556405   19.941280   2.556405   19.941280
1590.0   2.556915   20.010450   2.556915   20.010450   2.556915   20.010450
1600.0   2.557428   20.080461   2.557428   20.080461   2.557428   20.080461
